Time (s),Shift (nm)
0.0,0.0
0.1999999999999886,0.0026569999999999
0.4000000000000341,0.0041629999999999
0.6000000000000227,0.0048149999999997
0.8000000000000114,0.0058129999999998
1.0,0.0054869999999997
1.1999999999999886,0.0036969999999998
1.400000000000034,0.0027169999999998
1.6000000000000227,0.0019029999999999
1.8000000000000114,0.0016919999999998
2.0,0.0034309999999999
2.1999999999999886,0.0053169999999997
2.400000000000034,0.0056089999999999
2.6000000000000227,0.0050879999999999
2.800000000000012,0.0046019999999999
3.0,0.0041299999999999
3.1999999999999886,0.0046789999999998
3.400000000000034,0.0053299999999998
3.6000000000000227,0.0068179999999999
3.8000000000000114,0.0068739999999998
4.0,0.0074599999999998
4.199999999999989,0.0072309999999999
4.400000000000034,0.0078409999999999
4.600000000000023,0.0086239999999999
4.800000000000011,0.0082239999999997
5.0,0.0069819999999998
5.199999999999989,0.0044109999999999
5.400000000000034,0.0027949999999998
5.600000000000023,0.0007399999999999
5.800000000000011,0.0003309999999998
6.0,-0.0005600000000001
6.199999999999989,-4.600000000021254e-05
6.400000000000034,-0.0015960000000001
6.600000000000023,-0.0025920000000001
6.800000000000011,-0.00415
7.0,-0.002585
7.199999999999989,-0.001648
7.400000000000034,-0.000976
7.600000000000023,0.0014689999999999
7.800000000000011,0.0024359999999998
8.0,0.0021839999999999
8.199999999999989,0.0015049999999998
8.400000000000034,0.0030379999999998
8.600000000000023,0.0028439999999998
8.800000000000011,0.0041969999999997
9.0,0.0046959999999998
9.199999999999989,0.0057769999999999
9.400000000000034,0.0068249999999998
9.600000000000025,0.0074789999999997
9.800000000000011,0.0071749999999999
10.0,0.0060219999999999
10.199999999999989,0.0061309999999998
10.400000000000034,0.0026399999999999
10.600000000000025,0.0001919999999999
10.800000000000011,-0.0011320000000001
11.0,-0.002291
11.199999999999989,-0.0050720000000001
11.400000000000034,-0.005039
11.600000000000025,-0.00442
11.800000000000011,-0.004426
12.0,-0.0042630000000001
12.199999999999989,-0.00391
12.400000000000034,-0.0020550000000001
12.600000000000025,-0.000672
12.800000000000011,0.0012939999999999
13.0,0.0038559999999998
13.199999999999989,0.0077189999999998
13.400000000000034,0.0091989999999999
13.600000000000025,0.0098339999999998
13.800000000000011,0.0100339999999998
14.0,0.0091459999999998
14.199999999999989,0.0062349999999999
14.400000000000034,0.0041629999999999
14.600000000000025,0.0026699999999999
14.800000000000011,0.0016029999999997
15.0,0.0013149999999999
15.199999999999989,0.0017959999999999
15.400000000000034,0.0020889999999997
15.600000000000025,0.0005689999999998
15.800000000000011,2.999999999997449e-05
16.0,0.0006969999999999
16.19999999999999,0.0020889999999997
16.400000000000034,0.0021819999999999
16.600000000000023,0.0039639999999998
16.80000000000001,0.0035359999999999
17.0,0.0017949999999999
17.19999999999999,0.0003679999999999
17.400000000000034,0.0013739999999999
17.600000000000023,-0.0006730000000001
17.80000000000001,-0.0015820000000001
18.0,-0.0011320000000001
18.19999999999999,-0.0022300000000001
18.400000000000038,-0.003357
18.600000000000023,-0.001452
18.80000000000001,0.0025649999999999
19.0,0.0049629999999998
19.19999999999999,0.0078379999999997
19.400000000000038,0.0080179999999998
19.600000000000023,0.0077049999999998
19.80000000000001,0.0065009999999998
20.0,0.0050499999999999
20.19999999999999,0.0026059999999998
20.400000000000038,0.0006419999999998
20.600000000000023,-0.0003000000000001
20.80000000000001,-0.0026300000000001
21.0,-0.0030690000000002
21.19999999999999,-0.0020790000000001
21.400000000000038,0.0007159999999999
21.600000000000023,0.0008999999999999
21.80000000000001,0.0015659999999999
22.0,0.0011549999999997
22.19999999999999,0.0028619999999999
22.400000000000038,0.0023699999999999
22.600000000000023,0.0010909999999999
22.80000000000001,-0.000574
23.0,-0.00268
23.19999999999999,-0.0048920000000001
23.400000000000038,-0.0060950000000001
23.600000000000023,-0.0039310000000001
23.80000000000001,-0.001384
24.0,0.0028449999999999
24.19999999999999,0.0068029999999998
24.400000000000038,0.0099519999999999
24.600000000000023,0.0107919999999999
24.80000000000001,0.0111169999999998
25.0,0.0104339999999998
25.19999999999999,0.0068119999999998
25.400000000000038,0.0063779999999999
25.600000000000023,0.0055329999999997
25.80000000000001,0.0036379999999998
26.0,0.0019569999999999
26.19999999999999,3.2999999999949736e-05
26.400000000000038,-0.004134
26.600000000000023,-0.0060470000000001
26.80000000000001,-0.0034400000000001
27.0,-0.00055
27.19999999999999,0.0024059999999999
27.400000000000038,0.0032979999999998
27.600000000000023,0.0036609999999999
27.80000000000001,0.0015869999999997
28.0,-4.8000000000048e-05
28.19999999999999,-0.0006680000000001
28.400000000000038,0.0010109999999998
28.600000000000023,0.0024289999999997
28.80000000000001,0.0027629999999998
29.0,0.0032519999999998
29.19999999999999,0.0050629999999998
29.400000000000038,0.0061539999999999
29.600000000000023,0.0063849999999998
29.80000000000001,0.0069429999999999
30.0,0.0064809999999999
30.19999999999999,0.0053929999999999
30.400000000000038,0.0037049999999998
30.600000000000023,0.0031519999999998
30.80000000000001,0.0034359999999999
31.0,0.0031729999999998
31.19999999999999,0.0027869999999998
31.400000000000038,0.0021789999999999
31.600000000000023,0.0010169999999998
31.80000000000001,-0.000229
32.0,-0.0010700000000001
32.19999999999999,-0.0031020000000001
32.400000000000034,-0.003292
32.60000000000002,-0.0025570000000001
32.80000000000001,-0.0017960000000001
33.0,-0.00079
33.19999999999999,0.0007209999999999
33.400000000000034,0.0004649999999999
33.60000000000002,-0.0019980000000001
33.80000000000001,-0.004455
34.0,-0.006788
34.19999999999999,-0.006542
34.400000000000034,-0.0050400000000001
34.60000000000002,-0.0013720000000001
34.80000000000001,0.0013759999999998
35.0,0.0033519999999997
35.19999999999999,0.0035059999999997
35.400000000000034,0.0046419999999998
35.60000000000002,0.0057219999999997
35.80000000000001,0.0071509999999999
36.0,0.0088059999999998
36.19999999999999,0.0102239999999997
36.400000000000034,0.0102059999999999
36.60000000000002,0.0082069999999998
36.80000000000001,0.006162
37.0,0.0031429999999998
37.19999999999999,-0.0001630000000001
37.400000000000034,-0.003336
37.60000000000002,-0.004906
37.80000000000001,-0.0069080000000001
38.0,-0.006302
38.19999999999999,-0.0032530000000001
38.400000000000034,0.0008439999999998
38.60000000000002,0.0045749999999999
38.80000000000001,0.0083339999999998
39.0,0.0089249999999998
39.19999999999999,0.0081949999999999
39.400000000000034,0.0069479999999999
39.60000000000002,0.0057929999999999
39.80000000000001,0.0050019999999999
40.0,0.0062359999999999
40.19999999999999,0.0064109999999999
40.400000000000034,0.0071329999999998
40.60000000000002,0.0064809999999999
40.80000000000001,0.0047739999999998
41.0,0.0018309999999999
41.19999999999999,0.0010889999999998
41.400000000000034,3.0999999999892225e-05
41.60000000000002,-0.0008430000000001
41.80000000000001,-0.000815
42.0,-0.0011160000000001
42.19999999999999,-0.0029970000000001
42.400000000000034,-0.0054860000000001
42.60000000000002,-0.0062159999999999
42.80000000000001,-0.0074260000000001
43.0,-0.0059950000000001
43.19999999999999,-0.006062
43.400000000000034,-0.0063170000000001
43.60000000000002,-0.006788
43.80000000000001,-0.0057360000000001
44.0,-0.006947
44.19999999999999,-0.007384
44.400000000000034,-0.0058520000000001
44.60000000000002,-0.0035210000000001
44.80000000000001,-0.0033240000000001
45.0,-0.0020230000000001
45.19999999999999,-0.002482
45.400000000000034,-0.003557
45.60000000000002,-0.006537
45.80000000000001,-0.0078740000000001
46.0,-0.011506
46.19999999999999,-0.012725
46.400000000000034,-0.01417
46.60000000000002,-0.0133420000000001
46.80000000000001,-0.012189
47.0,-0.009363
47.19999999999999,-0.007492
47.400000000000034,-0.0058820000000001
47.60000000000002,-0.006135
47.80000000000001,-0.004064
48.0,-0.001514
48.19999999999999,0.0001959999999998
48.400000000000034,0.0015709999999999
48.60000000000002,0.0021519999999999
48.80000000000001,-1.0000000000065512e-05
49.0,-0.0025840000000001
49.19999999999999,-0.0023410000000001
49.400000000000034,-0.0033830000000001
49.60000000000002,-0.003751
49.80000000000001,-0.0044430000000001
50.0,-0.0051780000000001
50.19999999999999,-0.005648
50.400000000000034,-0.0039060000000001
50.60000000000002,-0.0021360000000001
50.80000000000001,-0.00099
51.0,0.0002019999999998
51.19999999999999,0.0008749999999999
51.400000000000034,-9.100000000006324e-05
51.60000000000002,-0.001074
51.80000000000001,-0.001972
52.0,-0.0024680000000001
52.19999999999999,-0.003743
52.400000000000034,-0.0049920000000001
52.60000000000002,-0.0053610000000001
52.80000000000001,-0.0066940000000002
53.0,-0.0090180000000001
53.19999999999999,-0.009884
53.400000000000034,-0.0083330000000001
53.60000000000002,-0.0081250000000001
53.80000000000001,-0.0062429999999999
54.0,-0.005594
54.19999999999999,-0.006723
54.400000000000034,-0.0100840000000002
54.60000000000002,-0.0103700000000002
54.80000000000001,-0.009975
55.0,-0.006969
55.19999999999999,-0.00495
55.400000000000034,-0.003092
55.60000000000002,-0.0021980000000001
55.80000000000001,-0.0010800000000001
56.0,-0.0015660000000001
56.19999999999999,-0.0001790000000001
56.400000000000034,0.0028259999999999
56.60000000000002,0.0038399999999998
56.80000000000001,0.0028599999999998
57.0,0.0008649999999998
57.19999999999999,-0.0006620000000001
57.400000000000034,-0.0037
57.60000000000002,-0.0047030000000001
57.80000000000001,-0.0048110000000001
58.0,-0.0015850000000001
58.19999999999999,0.0010169999999998
58.400000000000034,0.0020969999999997
58.60000000000002,0.0016379999999998
58.80000000000001,0.0015329999999997
59.0,0.0006239999999999
59.19999999999999,-0.0026890000000001
59.400000000000034,-0.0017720000000001
59.60000000000002,-0.001276
59.80000000000001,-0.002871
60.0,-0.0060680000000001
60.19999999999999,-0.0046830000000002
60.400000000000034,-0.0059570000000002
60.60000000000002,-0.005552
60.80000000000001,-0.0052100000000001
61.0,-0.0037550000000001
61.19999999999999,-0.0038260000000001
61.400000000000034,-0.004512
61.60000000000002,-0.0057740000000001
61.80000000000001,-0.004674
62.00000000000006,-0.0037660000000001
62.19999999999999,-0.004269
62.400000000000034,-0.0046520000000001
62.599999999999966,-0.0055400000000001
62.80000000000001,-0.005859
63.00000000000006,-0.00597
63.19999999999999,-0.004056
63.400000000000034,-0.0024050000000002
63.599999999999966,-0.0003600000000001
63.80000000000001,0.0014979999999999
64.00000000000006,0.0023409999999999
64.19999999999999,0.0007649999999999
64.40000000000003,-0.0003030000000001
64.59999999999997,-0.000151
64.80000000000001,-0.0004890000000001
65.00000000000006,0.0003269999999999
65.19999999999999,0.0013679999999998
65.40000000000003,0.0032369999999999
65.59999999999997,0.0024769999999998
65.80000000000001,0.0021629999999999
66.00000000000006,0.0032039999999999
66.19999999999999,0.0041269999999999
66.40000000000003,0.0047339999999997
66.59999999999997,0.0047329999999998
66.80000000000001,0.0029999999999998
67.00000000000006,-0.001033
67.19999999999999,-0.002583
67.40000000000003,-0.004032
67.59999999999997,-0.00516
67.80000000000001,-0.00377
68.00000000000006,-0.0024300000000001
68.19999999999999,-0.002482
68.40000000000003,-0.0042870000000001
68.59999999999997,-0.005624
68.80000000000001,-0.0078150000000001
69.00000000000006,-0.007875
69.19999999999999,-0.0082730000000001
69.40000000000003,-0.0072860000000001
69.59999999999997,-0.0047220000000001
69.80000000000001,-0.0036610000000001
70.00000000000006,-0.005792
70.19999999999999,-0.00882
70.40000000000003,-0.0086480000000002
70.59999999999997,-0.008243
70.80000000000001,-0.0080710000000001
71.00000000000006,-0.0063460000000001
71.19999999999999,-0.003416
71.40000000000003,-0.002877
71.59999999999997,-0.003549
71.80000000000001,-0.004118
72.00000000000006,-0.0047650000000001
72.19999999999999,-0.0051620000000001
72.40000000000003,-0.007014
72.59999999999997,-0.0090910000000001
72.80000000000001,-0.0095720000000001
73.00000000000006,-0.00936
73.19999999999999,-0.009605
73.40000000000003,-0.00798
73.59999999999997,-0.0049700000000001
73.80000000000001,-0.0005030000000001
74.00000000000006,0.0009719999999999
74.19999999999999,0.0015549999999999
74.40000000000003,-0.0002840000000001
74.59999999999997,-0.002893
74.80000000000001,-0.0081630000000001
75.00000000000006,-0.0099200000000001
75.19999999999999,-0.0094550000000002
75.40000000000003,-0.008685
75.59999999999997,-0.0072660000000002
75.80000000000001,-0.0061330000000001
76.00000000000006,-0.00516
76.19999999999999,-0.0050460000000001
76.40000000000003,-0.003716
76.59999999999997,-0.0027920000000001
76.80000000000001,-0.002674
77.00000000000006,-0.0022970000000002
77.19999999999999,-0.0026860000000001
77.40000000000003,-0.0033420000000001
77.59999999999997,-0.005444
77.80000000000001,-0.005044
78.00000000000006,-0.004124
78.19999999999999,-0.0044870000000001
78.40000000000003,-0.003864
78.59999999999997,-0.0026300000000001
78.80000000000001,-0.0027570000000001
79.00000000000006,-0.006831
79.19999999999999,-0.0074450000000001
79.40000000000003,-0.005951
79.59999999999997,-0.003139
79.80000000000001,-0.0005000000000001
80.00000000000006,0.0035669999999998
80.19999999999999,0.0053309999999999
80.40000000000003,0.0041169999999999
80.59999999999997,0.0024559999999997
80.80000000000001,0.0018459999999997
81.00000000000006,0.0015279999999999
81.19999999999999,0.0006599999999998
81.40000000000003,-0.0012310000000002
81.59999999999997,-0.002968
81.80000000000001,-0.0046790000000001
82.00000000000006,-0.0045840000000001
82.19999999999999,-0.005325
82.40000000000003,-0.0058470000000001
82.59999999999997,-0.005972
82.80000000000001,-0.006807
83.00000000000006,-0.007419
83.19999999999999,-0.007776
83.40000000000003,-0.00722
83.59999999999997,-0.0071020000000001
83.80000000000001,-0.005657
84.00000000000006,-0.003981
84.19999999999999,-0.003033
84.40000000000003,-0.0032880000000001
84.59999999999997,-0.004901
84.80000000000001,-0.008944
85.00000000000006,-0.0123220000000001
85.19999999999999,-0.0129180000000002
85.40000000000003,-0.0119030000000002
85.59999999999997,-0.0103010000000001
85.80000000000001,-0.0076830000000001
86.00000000000006,-0.0073780000000001
86.19999999999999,-0.0089480000000001
86.40000000000003,-0.010909
86.59999999999997,-0.0102170000000001
86.80000000000001,-0.00703
87.00000000000006,-0.0031450000000001
87.19999999999999,0.0001359999999999
87.40000000000003,-9.200000000020304e-05
87.59999999999997,-0.00289
87.80000000000001,-0.0070290000000001
88.00000000000006,-0.0096480000000001
88.19999999999999,-0.0110240000000001
88.40000000000003,-0.0089450000000002
88.59999999999997,-0.00696
88.80000000000001,-0.0047290000000002
89.00000000000006,-0.0038250000000001
89.19999999999999,-0.0029640000000001
89.40000000000003,-0.00207
89.59999999999997,0.0005569999999999
89.80000000000001,0.0012089999999997
90.00000000000006,0.0009589999999999
90.2,0.0002659999999998
90.40000000000003,-0.000971
90.59999999999997,-0.004053
90.8,-0.0051320000000001
91.00000000000006,-0.005319
91.2,-0.004769
91.40000000000003,-0.0055880000000001
91.59999999999997,-0.007735
91.8,-0.01187
92.00000000000006,-0.015829
92.2,-0.017714
92.40000000000003,-0.016329
92.59999999999997,-0.013179
92.8,-0.0098950000000002
93.00000000000006,-0.0069300000000001
93.2,-0.0062390000000001
93.40000000000003,-0.0069730000000001
93.59999999999997,-0.0068890000000001
93.8,-0.0073590000000001
94.00000000000006,-0.0067290000000002
94.2,-0.005543
94.40000000000003,-0.0045540000000001
94.59999999999997,-0.0047680000000001
94.8,-0.005095
95.00000000000006,-0.0063010000000001
95.2,-0.0078820000000001
95.40000000000003,-0.0079120000000001
95.59999999999997,-0.0081760000000001
95.8,-0.007794
96.00000000000006,-0.008189
96.2,-0.008944
96.40000000000003,-0.010342
96.59999999999997,-0.0107350000000001
96.8,-0.0096310000000001
97.00000000000006,-0.006583
97.2,-0.0026410000000001
97.40000000000003,-0.0002220000000001
97.59999999999997,0.0013539999999998
97.8,0.0003029999999999
98.00000000000006,-0.003192
98.2,-0.0057360000000001
98.40000000000003,-0.0075010000000002
98.59999999999997,-0.0083970000000002
98.8,-0.008496
99.00000000000006,-0.007549
99.2,-0.0086520000000001
99.40000000000003,-0.009376
99.59999999999997,-0.0090940000000001
99.8,-0.0065030000000001
100.00000000000006,-0.0071160000000001
100.2,-0.00641
100.40000000000003,-0.005133
100.59999999999997,-0.004226
100.8,-0.005222
101.00000000000006,-0.0043000000000001
101.2,-0.0045700000000001
101.40000000000003,-0.006725
101.59999999999997,-0.009033
101.8,-0.0103900000000001
102.00000000000006,-0.0114510000000001
102.2,-0.0115580000000001
102.40000000000003,-0.0101460000000002
102.59999999999997,-0.0093150000000001
102.8,-0.0069730000000001
103.00000000000006,-0.0051640000000001
103.2,-0.005608
103.40000000000003,-0.005406
103.59999999999997,-0.0062440000000001
103.8,-0.00926
104.00000000000006,-0.0111500000000002
104.2,-0.011071
104.40000000000003,-0.0106330000000001
104.59999999999997,-0.0089620000000001
104.8,-0.006572
105.00000000000006,-0.0037550000000001
105.2,-0.001751
105.40000000000003,-0.0015440000000002
105.59999999999997,-0.0016450000000001
105.8,-0.001047
106.00000000000006,-0.0023790000000001
106.2,-0.0046350000000001
106.40000000000003,-0.007193
106.59999999999997,-0.0089670000000001
106.8,-0.0114260000000001
107.00000000000006,-0.010955
107.2,-0.0105000000000001
107.40000000000003,-0.0110050000000001
107.59999999999997,-0.013616
107.8,-0.0157090000000001
108.00000000000006,-0.0170430000000001
108.2,-0.0155580000000001
108.40000000000003,-0.0124600000000001
108.59999999999997,-0.0091150000000002
108.8,-0.006205
109.00000000000006,-0.0037690000000001
109.2,-0.0027830000000002
109.40000000000003,-0.0030420000000002
109.59999999999997,-0.0039950000000001
109.8,-0.0052750000000001
110.00000000000006,-0.007738
110.2,-0.0097020000000001
110.40000000000003,-0.00957
110.59999999999997,-0.0080380000000002
110.8,-0.0068290000000001
111.00000000000006,-0.0075180000000001
111.2,-0.0071970000000001
111.40000000000003,-0.007856
111.59999999999997,-0.0075010000000002
111.8,-0.0081710000000001
112.00000000000006,-0.007152
112.2,-0.007886
112.40000000000003,-0.0088000000000001
112.59999999999997,-0.009946
112.8,-0.0092260000000001
113.00000000000006,-0.0086840000000001
113.2,-0.008286
113.40000000000003,-0.008296
113.59999999999997,-0.008032
113.8,-0.0088050000000001
114.00000000000006,-0.0087860000000001
114.2,-0.0058600000000001
114.40000000000003,-0.0014550000000002
114.59999999999997,0.0003299999999999
114.8,0.0008079999999999
115.00000000000006,-0.0013550000000002
115.2,-0.005168
115.40000000000003,-0.009662
115.59999999999997,-0.0132830000000001
115.8,-0.0143740000000001
116.00000000000006,-0.013433
116.2,-0.0112510000000001
116.40000000000003,-0.008313
116.59999999999997,-0.0047670000000001
116.8,-0.0029880000000002
117.00000000000006,-0.0024220000000001
117.2,-0.002528
117.40000000000003,-0.0024220000000001
117.59999999999997,-0.0050540000000001
117.8,-0.006793
118.00000000000006,-0.0075830000000001
118.2,-0.0086940000000002
118.40000000000003,-0.01075
118.59999999999997,-0.010709
118.8,-0.010086
119.00000000000006,-0.007757
119.2,-0.0057520000000002
119.40000000000003,-0.00228
119.59999999999997,0.0017899999999999
119.8,0.0034199999999999
120.00000000000006,0.0018269999999998
120.2,-0.0008080000000001
120.40000000000003,-0.0041810000000002
120.59999999999997,-0.006914
120.8,-0.008118
121.00000000000006,-0.00705
121.2,-0.0058120000000001
121.40000000000003,-0.0055480000000001
121.59999999999997,-0.005765
121.8,-0.0057
122.00000000000006,-0.0074960000000001
122.2,-0.0088190000000001
122.40000000000003,-0.0095010000000002
122.59999999999997,-0.0099010000000001
122.8,-0.010599
123.00000000000006,-0.0104430000000002
123.2,-0.0116210000000001
