Time (s),Shift (nm)
0.0,0.0
0.2000000000000454,-0.0005460000000001
0.4000000000000341,-0.0002760000000001
0.6000000000000227,0.001576
0.8000000000000114,0.0018139999999999
1.0,0.0013549999999999
1.2000000000000457,0.0016169999999999
1.400000000000034,0.0012469999999999
1.6000000000000227,0.0019689999999998
1.8000000000000114,0.0009519999999998
2.0,0.0013819999999999
2.200000000000045,0.001657
2.400000000000034,0.0034669999999998
2.6000000000000227,0.0043149999999998
2.800000000000012,0.00461
3.0,0.0040549999999999
3.200000000000045,0.0033129999999998
3.400000000000034,0.0025479999999999
3.6000000000000227,0.0011149999999999
3.8000000000000114,0.0004059999999999
4.0,-0.0005700000000001
4.2000000000000455,-0.0004319999999999
4.400000000000034,-0.0001550000000001
4.600000000000023,0.0011079999999998
4.800000000000011,0.002742
5.0,0.0040549999999999
5.2000000000000455,0.006494
5.400000000000034,0.0070019999999999
5.600000000000023,0.0060909999999998
5.800000000000011,0.0056939999999998
6.0,0.0045869999999998
6.2000000000000455,0.002491
6.400000000000034,0.002402
6.600000000000023,0.0035379999999998
6.800000000000011,0.0047209999999999
7.0,0.0059449999999998
7.2000000000000455,0.0058869999999999
7.400000000000034,0.0067709999999998
7.600000000000023,0.0078099999999998
7.800000000000011,0.0075979999999999
8.0,0.0068789999999998
8.200000000000045,0.006475
8.400000000000034,0.004718
8.600000000000023,0.0013399999999998
8.800000000000011,-0.0014739999999999
9.0,-0.0016880000000001
9.200000000000044,0.0001439999999999
9.400000000000034,0.0024389999999998
9.600000000000025,0.0062759999999999
9.800000000000011,0.0090249999999998
10.0,0.0104949999999999
10.200000000000044,0.0084569999999999
10.400000000000034,0.0076099999999998
10.600000000000025,0.006645
10.800000000000011,0.0077159999999998
11.0,0.0059369999999998
11.200000000000044,0.0050759999999998
11.400000000000034,0.0023429999999999
11.600000000000025,0.0007219999999998
11.800000000000011,-0.0019710000000001
12.0,-0.0002280000000001
12.200000000000044,0.0026479999999999
12.400000000000034,0.005371
12.600000000000025,0.0058039999999999
12.800000000000011,0.0054479999999998
13.0,0.0033449999999999
13.200000000000044,0.00024
13.400000000000034,-0.0042600000000001
13.600000000000025,-0.0064190000000001
13.800000000000011,-0.006377
14.0,-0.006296
14.200000000000044,-0.007349
14.400000000000034,-0.0057679999999999
14.600000000000025,-0.0039820000000001
14.800000000000011,-0.00326
15.0,-0.002458
15.200000000000044,0.000491
15.400000000000034,0.0027159999999999
15.600000000000025,0.0033259999999999
15.800000000000011,0.002653
16.0,0.0016159999999998
16.200000000000045,0.0001529999999998
16.400000000000034,-0.002669
16.600000000000023,-0.0054009999999999
16.80000000000001,-0.005106
17.0,-0.004016
17.200000000000045,-0.002143
17.400000000000034,-0.0009879999999999
17.600000000000023,-0.0001550000000001
17.80000000000001,-0.001621
18.0,-0.001781
18.200000000000045,-0.004183
18.400000000000038,-0.004245
18.600000000000023,-0.0040040000000001
18.80000000000001,-0.003646
19.0,-0.0053910000000001
19.200000000000045,-0.005295
19.400000000000038,-0.0070149999999999
19.600000000000023,-0.0077260000000001
19.80000000000001,-0.006747
20.0,-0.004221
20.200000000000045,-0.001783
20.400000000000038,0.0030729999999998
20.600000000000023,0.005525
20.80000000000001,0.0056339999999999
21.0,0.003946
21.200000000000045,0.0020789999999999
21.400000000000038,9.999999999177334e-07
21.600000000000023,-0.0018960000000001
21.80000000000001,-0.003452
22.0,-0.0064319999999999
22.200000000000045,-0.0074580000000001
22.400000000000038,-0.0094340000000001
22.600000000000023,-0.010153
22.80000000000001,-0.010623
23.0,-0.0087160000000001
23.200000000000045,-0.006869
23.400000000000038,-0.0026160000000001
23.600000000000023,0.0001739999999998
23.80000000000001,0.0019779999999998
24.0,0.0021359999999999
24.200000000000045,0.002977
24.400000000000038,0.0023689999999998
24.600000000000023,0.0021519999999999
24.80000000000001,0.0018609999999998
25.0,0.0041799999999998
25.200000000000045,0.0044459999999999
25.400000000000038,0.0034009999999999
25.600000000000023,0.0024469999999998
25.80000000000001,0.0016189999999998
26.0,-0.000329
26.200000000000045,-0.0012800000000001
26.400000000000038,-0.0017610000000001
26.600000000000023,-0.000866
26.80000000000001,0.0014909999999999
27.0,0.0028969999999999
27.200000000000045,0.0021719999999998
27.400000000000038,0.0012419999999999
27.600000000000023,-0.0009320000000001
27.80000000000001,-0.002976
28.0,-0.0046870000000001
28.200000000000045,-0.0051830000000001
28.400000000000038,-0.005414
28.600000000000023,-0.004429
28.80000000000001,-0.0055899999999999
29.0,-0.006226
29.200000000000045,-0.0057740000000001
29.400000000000038,-0.0041310000000001
29.600000000000023,-0.002391
29.80000000000001,-0.0002330000000001
30.0,0.0013499999999999
30.200000000000045,-2.199999999996649e-05
30.400000000000038,-0.0017759999999999
30.600000000000023,-0.0030640000000001
30.80000000000001,-0.0021029999999999
31.0,-0.0028480000000001
31.200000000000045,-0.002148
31.400000000000038,-0.0031270000000001
31.600000000000023,-0.0049510000000001
31.80000000000001,-0.0076150000000001
32.0,-0.0093130000000001
32.200000000000045,-0.010221
32.400000000000034,-0.0094610000000001
32.60000000000002,-0.0079
32.80000000000001,-0.0063790000000001
33.0,-0.0028050000000001
33.200000000000045,-0.0019550000000001
33.400000000000034,-0.0022090000000001
33.60000000000002,-0.002869
33.80000000000001,-0.0020839999999999
34.0,-0.004329
34.200000000000045,-0.0052450000000001
34.400000000000034,-0.0071130000000001
34.60000000000002,-0.00801
34.80000000000001,-0.009886
35.0,-0.009946
35.200000000000045,-0.0098949999999999
35.400000000000034,-0.007066
35.60000000000002,-0.0045080000000001
35.80000000000001,-0.002089
36.0,-6.499999999998174e-05
36.200000000000045,0.0010329999999998
36.400000000000034,-0.0008879999999999
36.60000000000002,-0.001978
36.80000000000001,-0.0036150000000001
37.0,-0.0035850000000001
37.200000000000045,-0.0035709999999999
37.400000000000034,-0.0012960000000001
37.60000000000002,-0.0025080000000001
37.80000000000001,-0.004148
38.0,-0.006032
38.200000000000045,-0.0074400000000001
38.400000000000034,-0.0081999999999999
38.60000000000002,-0.0087030000000001
38.80000000000001,-0.0077010000000001
39.0,-0.0064060000000001
39.200000000000045,-0.0055750000000001
39.400000000000034,-0.006421
39.60000000000002,-0.007357
39.80000000000001,-0.0095709999999999
40.0,-0.0138850000000001
40.200000000000045,-0.0159550000000001
40.400000000000034,-0.01892
40.60000000000002,-0.0182520000000001
40.80000000000001,-0.016796
41.0,-0.014882
41.200000000000045,-0.013444
41.400000000000034,-0.0120930000000001
41.60000000000002,-0.0125680000000001
41.80000000000001,-0.013087
42.0,-0.0125570000000001
42.200000000000045,-0.0121390000000001
42.400000000000034,-0.011403
42.60000000000002,-0.010477
42.80000000000001,-0.008933
43.0,-0.0078180000000001
43.200000000000045,-0.0081919999999999
43.400000000000034,-0.0075439999999999
43.60000000000002,-0.008693
43.80000000000001,-0.010269
44.0,-0.0114659999999999
44.200000000000045,-0.010135
44.400000000000034,-0.008958
44.60000000000002,-0.0057120000000001
44.80000000000001,-0.003284
45.0,-0.0019390000000001
45.200000000000045,-0.0019770000000001
45.400000000000034,-0.002078
45.60000000000002,-0.0047099999999999
45.80000000000001,-0.0060900000000001
46.0,-0.007236
46.200000000000045,-0.0074310000000001
46.400000000000034,-0.009279
46.60000000000002,-0.0105399999999999
46.80000000000001,-0.011724
47.0,-0.01157
47.200000000000045,-0.0122870000000001
47.400000000000034,-0.0125090000000001
47.60000000000002,-0.0112769999999999
47.80000000000001,-0.0101580000000001
48.0,-0.009443
48.200000000000045,-0.00886
48.400000000000034,-0.0058880000000001
48.60000000000002,-0.0037090000000001
48.80000000000001,-0.003676
49.0,-0.0065250000000001
49.200000000000045,-0.00739
49.400000000000034,-0.0090190000000001
49.60000000000002,-0.0100850000000001
49.80000000000001,-0.010067
50.0,-0.006272
50.200000000000045,-0.006637
50.400000000000034,-0.0060930000000001
50.60000000000002,-0.0053510000000001
50.80000000000001,-0.0049339999999999
51.0,-0.0074320000000001
51.200000000000045,-0.00869
51.400000000000034,-0.0108110000000001
51.60000000000002,-0.013462
51.80000000000001,-0.0131970000000001
52.0,-0.011379
52.200000000000045,-0.0082220000000001
52.400000000000034,-0.006715
52.60000000000002,-0.0056020000000001
52.80000000000001,-0.0060090000000001
53.0,-0.0059600000000001
53.200000000000045,-0.0056820000000001
53.400000000000034,-0.004909
53.60000000000002,-0.003262
53.80000000000001,-0.0038550000000001
54.0,-0.0045399999999999
54.200000000000045,-0.0056390000000001
54.400000000000034,-0.005667
54.60000000000002,-0.006563
54.80000000000001,-0.005827
55.0,-0.005695
55.200000000000045,-0.006685
55.400000000000034,-0.009643
55.60000000000002,-0.009994
55.80000000000001,-0.009881
56.0,-0.0093260000000001
56.200000000000045,-0.007417
56.400000000000034,-0.003878
56.60000000000002,-0.0023349999999999
56.80000000000001,-0.0017880000000001
57.0,-0.0039330000000001
57.200000000000045,-0.005303
57.400000000000034,-0.0071540000000001
57.60000000000002,-0.008952
57.80000000000001,-0.0120500000000001
58.0,-0.0129700000000001
58.200000000000045,-0.0147410000000001
58.400000000000034,-0.0146030000000001
58.60000000000002,-0.0145589999999999
58.80000000000001,-0.0132339999999999
59.0,-0.0122570000000001
59.200000000000045,-0.0122410000000001
59.400000000000034,-0.013239
59.60000000000002,-0.0144870000000001
59.80000000000007,-0.0149019999999999
60.0,-0.0139150000000001
60.200000000000045,-0.0136470000000001
60.39999999999998,-0.0145939999999999
60.60000000000002,-0.0145319999999999
60.80000000000007,-0.014842
61.0,-0.015417
61.200000000000045,-0.013754
61.39999999999998,-0.009592
61.60000000000002,-0.0063870000000001
61.80000000000007,-0.0045939999999999
62.0,-0.0045239999999999
62.200000000000045,-0.006164
62.39999999999998,-0.0102280000000001
62.60000000000002,-0.0134860000000001
62.80000000000007,-0.015209
63.0,-0.01686
63.200000000000045,-0.016337
63.39999999999998,-0.0147700000000001
63.60000000000002,-0.012691
63.80000000000007,-0.011894
64.0,-0.0099770000000001
64.20000000000005,-0.009481
64.39999999999998,-0.0085110000000001
64.60000000000002,-0.0089529999999999
64.80000000000007,-0.0080850000000001
65.0,-0.0072890000000001
65.20000000000005,-0.006502
65.39999999999998,-0.0054940000000001
65.60000000000002,-0.0043600000000001
65.80000000000007,-0.0046399999999999
66.0,-0.005457
66.20000000000005,-0.007532
66.39999999999998,-0.011104
66.60000000000002,-0.0147460000000001
66.80000000000007,-0.0161010000000001
67.0,-0.014769
67.20000000000005,-0.0116210000000001
67.39999999999998,-0.0086559999999999
67.60000000000002,-0.0067920000000001
67.80000000000007,-0.006202
68.0,-0.0070620000000001
68.20000000000005,-0.007581
68.39999999999998,-0.007829
68.60000000000002,-0.0069909999999999
68.80000000000007,-0.006447
69.0,-0.0067909999999999
69.20000000000005,-0.008618
69.39999999999998,-0.010097
69.60000000000002,-0.0100489999999999
69.80000000000007,-0.0087760000000001
70.0,-0.0079090000000001
70.20000000000005,-0.0079059999999999
70.39999999999998,-0.007805
70.60000000000002,-0.008545
70.80000000000007,-0.008407
71.0,-0.0067320000000001
71.20000000000005,-0.004823
71.39999999999998,-0.0045509999999999
71.60000000000002,-0.005022
71.80000000000007,-0.008448
72.0,-0.010645
72.20000000000005,-0.010753
72.39999999999998,-0.0073260000000001
72.60000000000002,-0.0074340000000001
72.80000000000007,-0.007894
73.0,-0.009292
73.20000000000005,-0.00953
73.39999999999998,-0.010728
73.60000000000002,-0.0091529999999999
73.80000000000007,-0.0074640000000001
74.0,-0.0081040000000001
74.20000000000005,-0.00916
74.39999999999998,-0.0113199999999999
74.60000000000002,-0.010747
74.80000000000007,-0.01069
75.0,-0.010798
75.20000000000005,-0.012601
75.39999999999998,-0.011897
75.60000000000002,-0.0120610000000001
75.80000000000007,-0.0113910000000001
76.0,-0.0096480000000001
76.20000000000005,-0.008574
76.39999999999998,-0.010078
76.60000000000002,-0.0128430000000001
76.80000000000007,-0.0116880000000001
77.0,-0.009033
77.20000000000005,-0.005921
77.39999999999998,-0.0028970000000001
77.60000000000002,-0.0013370000000001
77.80000000000007,-0.0011100000000001
78.0,-0.00089
78.20000000000005,-0.000679
78.39999999999998,-0.0012590000000001
78.60000000000002,-0.0018230000000001
78.80000000000007,-0.002769
79.0,-0.006345
79.20000000000005,-0.0099059999999999
79.39999999999998,-0.0130540000000001
79.60000000000002,-0.0142040000000001
79.80000000000007,-0.0156100000000001
80.0,-0.0138550000000001
80.20000000000005,-0.0118169999999999
80.39999999999998,-0.010302
80.60000000000002,-0.009255
80.80000000000007,-0.0104589999999999
81.0,-0.0128019999999999
81.20000000000005,-0.0132510000000001
81.39999999999998,-0.0122250000000001
81.60000000000002,-0.012083
81.80000000000007,-0.0122600000000001
82.0,-0.010885
82.20000000000005,-0.0119029999999999
82.39999999999998,-0.0140900000000001
82.60000000000002,-0.0157020000000001
82.80000000000007,-0.0141980000000001
83.0,-0.0149940000000001
83.20000000000005,-0.0154910000000001
83.39999999999998,-0.014183
83.60000000000002,-0.0131540000000001
83.80000000000007,-0.0128080000000001
84.0,-0.0121170000000001
84.20000000000005,-0.0107369999999999
84.39999999999998,-0.01143
84.60000000000002,-0.0121580000000001
84.80000000000007,-0.012142
85.0,-0.0120409999999999
85.20000000000005,-0.0143729999999999
85.39999999999998,-0.016396
85.60000000000002,-0.016159
85.80000000000007,-0.016297
86.0,-0.0158329999999999
86.20000000000005,-0.01347
86.39999999999998,-0.0108030000000001
86.60000000000002,-0.009584
86.80000000000007,-0.0098230000000001
87.0,-0.009257
87.20000000000005,-0.0093739999999999
87.39999999999998,-0.010094
87.60000000000002,-0.0108570000000001
87.80000000000007,-0.0096800000000001
88.0,-0.0107920000000001
88.20000000000005,-0.011883
88.39999999999998,-0.0128190000000001
88.60000000000002,-0.013044
88.80000000000007,-0.0152540000000001
89.0,-0.0153849999999999
89.20000000000005,-0.013813
89.39999999999998,-0.011592
89.60000000000002,-0.011209
89.80000000000007,-0.0110110000000001
90.0,-0.012269
90.20000000000005,-0.013338
90.39999999999998,-0.013694
90.60000000000002,-0.012688
90.80000000000008,-0.0109210000000001
91.0,-0.0099250000000001
91.20000000000005,-0.0087240000000001
91.39999999999998,-0.007303
91.60000000000002,-0.005454
91.80000000000008,-0.0054230000000001
92.0,-0.0058219999999999
92.20000000000005,-0.0067270000000001
92.39999999999998,-0.0077090000000001
92.60000000000002,-0.010688
92.80000000000008,-0.011001
93.0,-0.010291
93.20000000000005,-0.01025
93.39999999999998,-0.011916
93.60000000000002,-0.011751
93.80000000000008,-0.012772
94.0,-0.012634
94.20000000000005,-0.012164
94.39999999999998,-0.010701
94.60000000000002,-0.0096279999999999
94.80000000000008,-0.0079440000000001
95.0,-0.007894
95.20000000000005,-0.0077930000000001
95.39999999999998,-0.009395
95.60000000000002,-0.0122889999999999
95.80000000000008,-0.015865
96.0,-0.016933
96.20000000000005,-0.017929
96.39999999999998,-0.0153960000000001
96.60000000000002,-0.011217
96.80000000000008,-0.007152
97.0,-0.0057660000000001
97.20000000000005,-0.0042710000000001
97.39999999999998,-0.0054929999999999
97.60000000000002,-0.0070910000000001
97.80000000000008,-0.0088570000000001
98.0,-0.0100759999999999
98.20000000000005,-0.0111879999999999
98.39999999999998,-0.012801
98.60000000000002,-0.015111
98.80000000000008,-0.0155
99.0,-0.0148559999999999
99.20000000000005,-0.0161
99.39999999999998,-0.016701
99.60000000000002,-0.0151890000000001
99.80000000000008,-0.014326
100.0,-0.0148430000000001
100.20000000000005,-0.0147909999999999
100.39999999999998,-0.01268
100.60000000000002,-0.013201
100.80000000000008,-0.014259
101.0,-0.0142809999999999
101.20000000000005,-0.013627
101.39999999999998,-0.0134260000000001
101.60000000000002,-0.012672
101.80000000000008,-0.0121299999999999
102.0,-0.0117789999999999
102.20000000000005,-0.0107970000000001
102.39999999999998,-0.0116930000000001
102.60000000000002,-0.012043
102.80000000000008,-0.011662
103.0,-0.010604
103.20000000000005,-0.0098409999999999
103.39999999999998,-0.007009
103.60000000000002,-0.005457
103.80000000000008,-0.005244
104.0,-0.0058850000000001
104.20000000000005,-0.0064000000000001
104.39999999999998,-0.0067490000000001
104.60000000000002,-0.006177
104.80000000000008,-0.005471
105.0,-0.0057340000000001
105.20000000000005,-0.007649
105.39999999999998,-0.01025
105.60000000000002,-0.0129080000000001
105.80000000000008,-0.0151259999999999
106.0,-0.013281
106.20000000000005,-0.011228
106.39999999999998,-0.0094070000000001
106.60000000000002,-0.0087000000000001
106.80000000000008,-0.008464
107.0,-0.0113530000000001
107.20000000000005,-0.012725
107.39999999999998,-0.015768
107.60000000000002,-0.014664
107.80000000000008,-0.0139170000000001
108.0,-0.0127080000000001
108.20000000000005,-0.0126700000000001
108.39999999999998,-0.011201
108.60000000000002,-0.0115210000000001
108.80000000000008,-0.010763
109.0,-0.011462
109.20000000000005,-0.0118280000000001
109.39999999999998,-0.013082
109.60000000000002,-0.0134770000000001
109.80000000000008,-0.0151560000000001
110.0,-0.014504
110.20000000000005,-0.0126669999999999
110.39999999999998,-0.008869
110.60000000000002,-0.0072020000000001
110.80000000000008,-0.005184
111.0,-0.0060759999999999
111.20000000000005,-0.008361
111.39999999999998,-0.0107890000000001
111.60000000000002,-0.012545
111.80000000000008,-0.0154400000000001
112.0,-0.0158450000000001
112.20000000000005,-0.0165360000000001
112.39999999999998,-0.0171179999999999
112.60000000000002,-0.0169130000000001
112.80000000000008,-0.0133579999999999
113.0,-0.0124110000000001
113.20000000000005,-0.011506
113.39999999999998,-0.0113160000000001
113.60000000000002,-0.010985
113.80000000000008,-0.0117530000000001
114.0,-0.0122619999999999
114.20000000000005,-0.010712
114.39999999999998,-0.007471
114.60000000000002,-0.0042969999999999
114.80000000000008,-0.0031290000000001
115.0,-0.001462
115.20000000000005,-0.003338
115.39999999999998,-0.0078820000000001
115.60000000000002,-0.01282
115.80000000000008,-0.0152750000000001
116.0,-0.0166140000000001
116.20000000000005,-0.0152620000000001
116.39999999999998,-0.014304
116.60000000000002,-0.0156400000000001
116.80000000000008,-0.0168639999999999
117.0,-0.0177519999999999
117.20000000000005,-0.0178550000000001
117.39999999999998,-0.0176560000000001
117.60000000000002,-0.015365
117.80000000000008,-0.0153240000000001
118.0,-0.0149449999999999
118.20000000000005,-0.015735
118.39999999999998,-0.0146330000000001
118.60000000000002,-0.0133579999999999
118.80000000000008,-0.0101790000000001
119.0,-0.01027
119.20000000000005,-0.009827
119.39999999999998,-0.0105330000000001
119.60000000000002,-0.012232
119.80000000000008,-0.0152849999999999
120.0,-0.015954
120.20000000000005,-0.0161500000000001
120.39999999999998,-0.016928
120.60000000000002,-0.017435
120.80000000000008,-0.0166330000000001
121.0,-0.016699
121.20000000000005,-0.018288
121.39999999999998,-0.0189920000000001
121.60000000000002,-0.01838
121.80000000000008,-0.0158740000000001
122.0,-0.012027
122.20000000000005,-0.0085779999999999
122.39999999999998,-0.006836
122.60000000000002,-0.00766
122.80000000000008,-0.0114640000000001
123.0,-0.014423
123.20000000000005,-0.017497
123.39999999999998,-0.0188639999999999
123.60000000000002,-0.0173400000000001
123.80000000000008,-0.0159
124.0,-0.016485
124.20000000000005,-0.016737
124.39999999999998,-0.015862
124.60000000000002,-0.015956
124.80000000000008,-0.015463
125.0,-0.0143570000000001
125.20000000000005,-0.012626
125.39999999999998,-0.0113849999999999
125.60000000000002,-0.0106749999999999
125.80000000000008,-0.0101900000000001
126.0,-0.009157
126.20000000000005,-0.007929
126.39999999999998,-0.0066600000000001
126.60000000000002,-0.007084
126.80000000000008,-0.0068320000000001
