Time (s),Shift (nm)
0.0,0.0
0.2000000000000454,0.0002369999999998
0.4000000000000341,0.0024889999999999
0.6000000000000227,0.0048899999999998
0.8000000000000114,0.0065739999999998
1.0,0.0076399999999998
1.2000000000000457,0.0087589999999999
1.400000000000034,0.0104769999999998
1.6000000000000227,0.0128629999999998
1.8000000000000114,0.0152029999999998
2.0,0.0171779999999999
2.200000000000045,0.0174639999999999
2.400000000000034,0.0155079999999998
2.6000000000000227,0.0132889999999998
2.800000000000012,0.0114399999999998
3.0,0.0105609999999998
3.200000000000045,0.0098319999999998
3.400000000000034,0.010224
3.6000000000000227,0.0104049999999999
3.8000000000000114,0.0115999999999998
4.0,0.0120169999999999
4.2000000000000455,0.0130629999999998
4.400000000000034,0.0149459999999999
4.600000000000023,0.0156269999999998
4.800000000000011,0.0159039999999999
5.0,0.0154949999999998
5.2000000000000455,0.0163369999999998
5.400000000000034,0.0153559999999999
5.600000000000023,0.0145569999999999
5.800000000000011,0.0138949999999999
6.0,0.0133859999999998
6.2000000000000455,0.0113859999999998
6.400000000000034,0.011131
6.600000000000023,0.0125709999999998
6.800000000000011,0.013884
7.0,0.0144639999999998
7.2000000000000455,0.0146169999999998
7.400000000000034,0.0115609999999999
7.600000000000023,0.0071579999999999
7.800000000000011,0.0043369999999998
8.0,0.0038219999999999
8.200000000000045,0.0052959999999999
8.400000000000034,0.0090999999999998
8.600000000000023,0.0142799999999998
8.800000000000011,0.0166919999999999
9.0,0.0171369999999999
9.200000000000044,0.015876
9.400000000000034,0.0154609999999999
9.600000000000025,0.0116049999999998
9.800000000000011,0.0085649999999999
10.0,0.0074599999999998
10.200000000000044,0.0086459999999999
10.400000000000034,0.009139
10.600000000000025,0.0110449999999999
10.800000000000011,0.012772
11.0,0.0135779999999998
11.200000000000044,0.0128659999999998
11.400000000000034,0.0113889999999998
11.600000000000025,0.0089269999999999
11.800000000000011,0.0075109999999998
12.0,0.0062689999999998
12.200000000000044,0.0060019999999998
12.400000000000034,0.0066239999999999
12.600000000000025,0.0087469999999998
12.800000000000011,0.0100089999999999
13.0,0.0097879999999999
13.200000000000044,0.0092349999999998
13.400000000000034,0.0087569999999999
13.600000000000025,0.007865
13.800000000000011,0.0070629999999998
14.0,0.0093179999999999
14.200000000000044,0.0105309999999998
14.400000000000034,0.0093799999999999
14.600000000000025,0.0088639999999999
14.800000000000011,0.0082569999999999
15.0,0.0059509999999998
15.200000000000044,0.0042459999999999
15.400000000000034,0.0046889999999999
15.600000000000025,0.0052829999999999
15.800000000000011,0.0062699999999999
16.0,0.0065809999999999
16.200000000000045,0.0072499999999999
16.400000000000034,0.0075969999999998
16.600000000000023,0.0073799999999999
16.80000000000001,0.005425
17.0,0.0041169999999999
17.200000000000045,0.0036159999999998
17.400000000000034,0.0042159999999999
17.600000000000023,0.0048189999999999
17.80000000000001,0.0070299999999998
18.0,0.0088329999999998
18.200000000000045,0.0098229999999999
18.400000000000038,0.0079709999999999
18.600000000000023,0.00766
18.80000000000001,0.007487
19.0,0.0082949999999999
19.200000000000045,0.0082189999999999
19.400000000000038,0.0102759999999999
19.600000000000023,0.0097459999999998
19.80000000000001,0.0074379999999998
20.0,0.0051989999999999
20.200000000000045,0.0033859999999998
20.400000000000038,0.0017689999999999
20.600000000000023,0.0028829999999999
20.80000000000001,0.0055339999999999
21.0,0.0068509999999999
21.200000000000045,0.0071409999999998
21.400000000000038,0.0068669999999999
21.600000000000023,0.0049089999999998
21.80000000000001,0.0025489999999999
22.0,0.0006149999999998
22.200000000000045,0.0006699999999999
22.400000000000038,0.0031309999999999
22.600000000000023,0.0054969999999998
22.80000000000001,0.0059759999999999
23.0,0.0053399999999999
23.200000000000045,0.0037579999999999
23.400000000000038,0.0003349999999999
23.600000000000023,-0.003441
23.80000000000001,-0.0047320000000001
24.0,-0.004774
24.200000000000045,-0.0036090000000001
24.400000000000038,-0.001621
24.600000000000023,0.0019039999999999
24.80000000000001,0.005722
25.0,0.0083259999999998
25.200000000000045,0.0104199999999998
25.400000000000038,0.0096989999999999
25.600000000000023,0.0075349999999998
25.80000000000001,0.0050409999999998
26.0,0.0047119999999998
26.200000000000045,0.0048409999999998
26.400000000000038,0.0058689999999999
26.600000000000023,0.0076239999999998
26.80000000000001,0.0065779999999999
27.0,0.0062579999999998
27.200000000000045,0.0042709999999999
27.400000000000038,0.0047619999999999
27.600000000000023,0.003193
27.80000000000001,0.0043869999999999
28.0,0.0043169999999999
28.200000000000045,0.0055489999999998
28.400000000000038,0.005471
28.600000000000023,0.0094429999999998
28.80000000000001,0.0142019999999998
29.0,0.0166819999999998
29.200000000000045,0.0183429999999999
29.400000000000038,0.0173979999999998
29.600000000000023,0.0145439999999998
29.80000000000001,0.0097659999999999
30.0,0.0062409999999999
30.200000000000045,0.0032029999999998
30.400000000000038,0.000707
30.600000000000023,-0.002264
30.80000000000001,-0.0035519999999999
31.0,-0.0027410000000001
31.200000000000045,-0.000623
31.400000000000038,0.001147
31.600000000000023,0.0047139999999998
31.80000000000001,0.0079599999999999
32.0,0.0100509999999998
32.200000000000045,0.0103769999999998
32.400000000000034,0.0134349999999998
32.60000000000002,0.0139769999999999
32.80000000000001,0.0118959999999999
33.0,0.0100359999999999
33.200000000000045,0.0103159999999999
33.400000000000034,0.0103059999999999
33.60000000000002,0.0088799999999999
33.80000000000001,0.0097789999999999
34.0,0.0098669999999998
34.200000000000045,0.0083439999999999
34.400000000000034,0.005201
34.60000000000002,0.0038279999999999
34.80000000000001,0.0024339999999998
35.0,0.0019389999999999
35.200000000000045,-0.0001200000000001
35.400000000000034,-0.001851
35.60000000000002,-0.001643
35.80000000000001,0.0001339999999998
36.0,0.0017539999999998
36.200000000000045,0.0036919999999998
36.400000000000034,0.0063899999999998
36.60000000000002,0.007317
36.80000000000001,0.005471
37.0,0.0024879999999998
37.200000000000045,0.0001559999999998
37.400000000000034,-0.0020999999999999
37.60000000000002,-0.0043000000000001
37.80000000000001,-0.005568
38.0,-0.005873
38.200000000000045,-0.005112
38.400000000000034,-0.00354
38.60000000000002,8.399999999997299e-05
38.80000000000001,0.0032529999999999
39.0,0.0067729999999999
39.200000000000045,0.0102799999999998
39.400000000000034,0.0118959999999999
39.60000000000002,0.0121809999999999
39.80000000000001,0.0107589999999999
40.0,0.0111159999999999
40.200000000000045,0.0116189999999998
40.400000000000034,0.0109949999999998
40.60000000000002,0.0075189999999998
40.80000000000001,0.0058479999999998
41.0,0.0037879999999999
41.200000000000045,0.0025039999999998
41.400000000000034,0.0016179999999998
41.60000000000002,0.0018029999999999
41.80000000000001,0.002186
42.0,0.000796
42.200000000000045,-0.0002730000000001
42.400000000000034,0.0010729999999998
42.60000000000002,0.0037419999999999
42.80000000000001,0.0067899999999998
43.0,0.0089559999999999
43.200000000000045,0.0102579999999998
43.400000000000034,0.0102839999999999
43.60000000000002,0.0108839999999998
43.80000000000001,0.0104489999999999
44.0,0.0102119999999998
44.200000000000045,0.0081359999999999
44.400000000000034,0.0064799999999998
44.60000000000002,0.0052319999999999
44.80000000000001,0.0040639999999998
45.0,0.0029049999999999
45.200000000000045,0.0034019999999999
45.400000000000034,0.003112
45.60000000000002,0.0022279999999998
45.80000000000001,0.0007029999999998
46.0,0.0013059999999998
46.200000000000045,0.0003439999999998
46.400000000000034,0.00139
46.60000000000002,0.0025359999999998
46.80000000000001,0.0054739999999999
47.0,0.0059609999999998
47.200000000000045,0.0079169999999999
47.400000000000034,0.0112209999999999
47.60000000000002,0.0128039999999998
47.80000000000001,0.0111289999999999
48.0,0.0104639999999998
48.200000000000045,0.0093109999999998
48.400000000000034,0.0064969999999999
48.60000000000002,0.0031699999999998
48.80000000000001,0.0045809999999999
49.0,0.0059639999999998
49.200000000000045,0.0081049999999998
49.400000000000034,0.0081749999999998
49.60000000000002,0.0090259999999999
49.80000000000001,0.0063419999999998
50.0,0.0037079999999998
50.200000000000045,0.0013589999999998
50.400000000000034,9.599999999987396e-05
50.60000000000002,-0.000485
50.80000000000001,0.0014589999999998
51.0,0.0045319999999999
51.200000000000045,0.0057639999999998
51.400000000000034,0.0055689999999999
51.60000000000002,0.0050859999999999
51.80000000000001,0.0034889999999998
52.0,0.0016709999999999
52.200000000000045,0.0004979999999998
52.400000000000034,0.0013989999999999
52.60000000000002,0.0018639999999998
52.80000000000001,0.0007969999999999
53.0,0.0006129999999999
53.200000000000045,0.0015589999999998
53.400000000000034,0.0013759999999998
53.60000000000002,0.0006549999999998
53.80000000000001,0.0003009999999998
54.0,0.000537
54.200000000000045,0.0001379999999999
54.400000000000034,0.0023809999999999
54.60000000000002,0.0033369999999999
54.80000000000001,0.0041799999999998
55.0,0.003398
55.200000000000045,0.0020449999999998
55.400000000000034,-0.000291
55.60000000000002,-8.900000000000574e-05
55.80000000000001,0.0003689999999998
56.0,0.0005269999999999
56.200000000000045,0.0012919999999998
56.400000000000034,0.002942
56.60000000000002,0.0050329999999998
56.80000000000001,0.0057719999999998
57.0,0.0051869999999998
57.200000000000045,0.0034419999999999
57.400000000000034,-0.000388
57.60000000000002,-0.004258
57.80000000000007,-0.0050450000000001
58.0,-0.004688
58.200000000000045,-0.0055010000000002
58.39999999999998,-0.0059120000000001
58.60000000000002,-0.0046019999999999
58.80000000000007,-0.00356
59.0,-0.00347
59.200000000000045,0.0003289999999998
59.39999999999998,0.004054
59.60000000000002,0.0052569999999998
59.80000000000007,0.0050169999999998
60.0,0.0051359999999998
60.200000000000045,0.0020369999999998
60.39999999999998,-0.000458
60.60000000000002,-0.001897
60.80000000000007,-0.0006330000000001
61.0,0.000545
61.200000000000045,0.0024789999999998
61.39999999999998,0.0030609999999999
61.60000000000002,0.0044159999999999
61.80000000000007,0.0030429999999999
62.0,0.002753
62.200000000000045,0.0029799999999999
62.39999999999998,0.0044159999999999
62.60000000000002,0.0036249999999999
62.80000000000007,0.0040609999999998
63.0,0.0041909999999998
63.200000000000045,0.0041769999999998
63.39999999999998,0.0045119999999998
63.60000000000002,0.0042349999999999
63.80000000000007,0.0045339999999998
64.0,0.002807
64.20000000000005,0.001649
64.39999999999998,-0.0021079999999999
64.60000000000002,-0.0044980000000001
64.80000000000007,-0.0051720000000001
65.0,-0.003757
65.20000000000005,-0.0037720000000001
65.39999999999998,-0.002755
65.60000000000002,-0.0003300000000001
65.80000000000007,0.0001479999999998
66.0,0.0005519999999998
66.20000000000005,0.0020459999999999
66.39999999999998,0.0032559999999999
66.60000000000002,0.0016159999999998
66.80000000000007,0.001236
67.0,0.0014659999999999
67.20000000000005,0.0016559999999998
67.39999999999998,0.0022699999999999
67.60000000000002,0.0057449999999998
67.80000000000007,0.0079219999999999
68.0,0.0075219999999998
68.20000000000005,0.0065679999999999
68.39999999999998,0.0059219999999999
68.60000000000002,0.0022749999999998
68.80000000000007,-0.0024300000000001
69.0,-0.005014
69.20000000000005,-0.0059489999999999
69.39999999999998,-0.0057690000000001
69.60000000000002,-0.0024060000000001
69.80000000000007,0.0011129999999999
70.0,0.0031529999999999
70.20000000000005,0.0037639999999998
70.39999999999998,0.0039599999999999
70.60000000000002,0.0039589999999998
70.80000000000007,0.0039789999999999
71.0,0.0051579999999999
71.20000000000005,0.0057139999999999
71.39999999999998,0.005139
71.60000000000002,0.0030559999999999
71.80000000000007,0.001479
72.0,0.0009409999999998
72.20000000000005,0.0003919999999999
72.39999999999998,0.0004499999999998
72.60000000000002,0.0010689999999999
72.80000000000007,0.001174
73.0,0.0011079999999998
73.20000000000005,0.0014769999999999
73.39999999999998,0.0007299999999998
73.60000000000002,0.0008139999999998
73.80000000000007,0.0015499999999999
74.0,0.0013589999999998
74.20000000000005,0.0007189999999999
74.39999999999998,-0.0001090000000001
74.60000000000002,-0.00126
74.80000000000007,-0.0021650000000001
75.0,-0.003994
75.20000000000005,-0.005697
75.39999999999998,-0.0061470000000001
75.60000000000002,-0.005497
75.80000000000007,-0.006455
76.0,-0.006016
76.20000000000005,-0.0045980000000001
76.39999999999998,-0.001668
76.60000000000002,0.0001349999999999
76.80000000000007,0.0029029999999998
77.0,0.0048279999999998
77.20000000000005,0.0063189999999999
77.39999999999998,0.0067419999999998
77.60000000000002,0.0072829999999999
77.80000000000007,0.0070819999999998
78.0,0.0054059999999998
78.20000000000005,0.0044929999999998
78.39999999999998,0.0044089999999998
78.60000000000002,0.0041769999999998
78.80000000000007,0.0041199999999999
79.0,0.0040859999999998
79.20000000000005,0.0035549999999999
79.39999999999998,0.002286
79.60000000000002,0.0014529999999999
79.80000000000007,0.0017479999999998
80.0,0.0024569999999999
80.20000000000005,0.0033779999999998
80.39999999999998,0.0033959999999999
80.60000000000002,0.0034899999999999
80.80000000000007,0.0030199999999998
81.0,0.0037189999999998
81.20000000000005,0.0036359999999999
81.39999999999998,0.0027889999999999
81.60000000000002,0.0010639999999999
81.80000000000007,-0.0006209999999999
82.0,-0.0015850000000001
82.20000000000005,-0.0031039999999999
82.39999999999998,-0.0020120000000001
82.60000000000002,-0.0007680000000001
82.80000000000007,-0.0008020000000001
83.0,-5.500000000013827e-05
83.20000000000005,0.0025939999999999
83.39999999999998,0.0031629999999998
83.60000000000002,0.003452
83.80000000000007,0.0032369999999999
84.0,0.0025349999999999
84.20000000000005,0.0021889999999999
84.39999999999998,0.0033959999999999
84.60000000000002,0.0032559999999999
84.80000000000007,0.0046139999999998
85.0,0.0050249999999998
85.20000000000005,0.0035159999999998
85.39999999999998,0.0015849999999999
85.60000000000002,0.0008279999999998
85.80000000000007,0.0007549999999998
86.0,-0.000374
86.20000000000005,-0.0015629999999999
86.39999999999998,-0.0029750000000001
86.60000000000002,-0.005112
86.80000000000007,-0.0077960000000001
87.0,-0.0091620000000001
87.20000000000005,-0.0082600000000001
87.39999999999998,-0.0051590000000001
87.60000000000002,-0.0025140000000001
87.80000000000007,0.000564
88.0,0.0042819999999998
88.20000000000005,0.0053369999999999
88.39999999999998,0.0038439999999999
88.60000000000002,0.0030149999999999
88.80000000000007,0.0038249999999999
89.0,0.0037429999999998
89.20000000000005,0.0028819999999998
89.39999999999998,0.0025129999999999
89.60000000000002,0.0023709999999999
89.80000000000007,-0.000102
90.0,-0.00242
90.20000000000005,-0.0019610000000001
90.39999999999998,-0.0025080000000001
90.60000000000002,-0.0033580000000001
90.80000000000008,-0.0034819999999999
91.0,-0.0010910000000001
91.20000000000005,-0.000293
91.39999999999998,0.00068
91.60000000000002,0.0033719999999999
91.80000000000008,0.0054049999999998
92.0,0.0051839999999998
92.20000000000005,0.004043
92.39999999999998,0.0043689999999998
92.60000000000002,0.0028479999999999
92.80000000000008,0.001101
93.0,-0.0012929999999999
93.20000000000005,-0.0027210000000001
93.39999999999998,-0.006043
93.60000000000002,-0.0083380000000001
93.80000000000008,-0.008693
94.0,-0.0085270000000001
94.20000000000005,-0.008955
94.39999999999998,-0.00801
94.60000000000002,-0.006129
94.80000000000008,-0.005362
95.0,-0.005692
95.20000000000005,-0.0035420000000001
95.39999999999998,-0.001692
95.60000000000002,-0.0022120000000001
95.80000000000008,-0.002102
96.0,-0.000631
96.20000000000005,-0.0013040000000001
96.39999999999998,-0.0017580000000001
96.60000000000002,-0.000499
96.80000000000008,0.0009149999999999
97.0,0.0005249999999998
97.20000000000005,0.0012069999999999
97.39999999999998,0.0011339999999999
97.60000000000002,0.0011179999999999
97.80000000000008,-0.000569
98.0,0.0001489999999999
98.20000000000005,0.0005359999999998
98.39999999999998,0.0022109999999999
98.60000000000002,0.002359
98.80000000000008,0.0016529999999999
99.0,0.0004989999999998
99.20000000000005,0.0013559999999999
99.39999999999998,0.0006399999999999
99.60000000000002,0.0001719999999998
99.80000000000008,0.0015669999999998
100.0,0.0018199999999999
100.20000000000005,0.0003299999999999
100.39999999999998,-0.001125
100.60000000000002,-0.0007830000000002
100.80000000000008,-0.0016610000000001
101.0,-0.00177
101.20000000000005,-0.003203
101.39999999999998,-0.0032
101.60000000000002,-0.0028529999999999
101.80000000000008,-0.0023010000000001
102.0,-0.004242
102.20000000000005,-0.003749
102.39999999999998,-0.0043220000000001
102.60000000000002,-0.006596
102.80000000000008,-0.008134
103.0,-0.0076820000000001
103.20000000000005,-0.008027
103.39999999999998,-0.0084570000000001
103.60000000000002,-0.0067909999999999
103.80000000000008,-0.0036120000000001
104.0,-0.000815
104.20000000000005,-0.0003030000000001
104.39999999999998,0.0004359999999998
104.60000000000002,0.0011719999999999
104.80000000000008,-0.0010160000000001
105.0,-0.002701
105.20000000000005,-0.001716
105.39999999999998,-0.0016
105.60000000000002,-0.004537
105.80000000000008,-0.0056830000000001
106.0,-0.0060840000000002
106.20000000000005,-0.006939
106.39999999999998,-0.0069609999999999
106.60000000000002,-0.0065440000000001
106.80000000000008,-0.0070149999999999
107.0,-0.008475
107.20000000000005,-0.009371
107.39999999999998,-0.0095150000000001
107.60000000000002,-0.0089240000000001
107.80000000000008,-0.007765
108.0,-0.006474
108.20000000000005,-0.0044330000000001
108.39999999999998,-0.004604
108.60000000000002,-0.003373
108.80000000000008,-0.0039759999999999
109.0,-0.0034740000000001
109.20000000000005,-0.0048449999999999
109.39999999999998,-0.00553
109.60000000000002,-0.006132
109.80000000000008,-0.0044589999999999
110.0,-0.003335
110.20000000000005,-0.0021390000000001
110.39999999999998,0.0007329999999998
110.60000000000002,0.002016
110.80000000000008,0.004718
111.0,0.006653
111.20000000000005,0.0087099999999999
111.39999999999998,0.0089939999999999
111.60000000000002,0.0073649999999998
111.80000000000008,0.0045819999999998
112.0,0.0018159999999998
112.20000000000005,0.000213
112.39999999999998,-0.000796
112.60000000000002,-0.0010460000000001
112.80000000000008,-0.003044
113.0,-0.004026
113.20000000000005,-0.0067989999999999
113.39999999999998,-0.0074320000000001
113.60000000000002,-0.007343
113.80000000000008,-0.007014
114.0,-0.008469
114.20000000000005,-0.0092880000000001
114.39999999999998,-0.009187
114.60000000000002,-0.008342
114.80000000000008,-0.0069640000000001
115.0,-0.0045840000000001
115.20000000000005,-0.000402
115.39999999999998,0.0009669999999999
115.60000000000002,0.0029409999999998
115.80000000000008,0.0043719999999998
116.0,0.0054639999999999
116.20000000000005,0.0040869999999999
116.39999999999998,0.0025759999999999
116.60000000000002,0.0020679999999999
116.80000000000008,0.0010279999999998
117.0,-0.001543
117.20000000000005,-0.0023250000000001
117.39999999999998,-0.0020459999999999
117.60000000000002,-0.0031480000000001
117.80000000000008,-0.0028000000000001
118.0,-0.0010000000000001
118.20000000000005,-0.000377
118.39999999999998,-0.0013210000000001
118.60000000000002,-0.0034370000000001
118.80000000000008,-0.0062490000000001
119.0,-0.0093610000000001
119.20000000000005,-0.0111800000000001
119.39999999999998,-0.0103280000000001
119.60000000000002,-0.008269
119.80000000000008,-0.0046600000000001
120.0,-0.000955
120.20000000000005,0.0011799999999999
120.39999999999998,0.0006309999999998
120.60000000000002,-0.000261
120.80000000000008,-0.0010959999999999
121.0,-0.0003600000000001
